File: 化学生命工学実験4/無機物理化学実験/3/data/実験4配布ファイル/PXRD/20231124_sifsix_singlecrystal_2θ_θ.asc
*TYPE		=  Raw
*CLASS		=  ASCII CLASS
*SAMPLE		=
*COMMENT	=
*FNAME		=  20231124_sifsix_singlecrystal_2θ_θ.asc
*DATE		=  24-Nov-23 13:30

*GROUP_COUNT	=  1
*GONIO		=  MiniFlex 300/600 +, 150
*ATTACHMENT	=  6サンプルチェンジャ
*ASC		=  0, 0, 0.000000, 0.000000
*FILTER		=  K-beta(x1)
*C_MONOCHRO	=  None, 0.000000
*SLIT_NAME	=  0, IHS
*SLIT_NAME	=  1, DS
*SLIT_NAME	=  2, SS
*SLIT_NAME	=  3, RS
*COUNTER	=  D/teX Ultra, 0
*POS_FORMAT	=  0
*SCAN_AXIS	=  2theta/theta
*MEAS_MODE	=  Continuous Scanning
*TARGET		=  29
*XRAY_CHAR	=  K-ALPHA
*WAVE_LENGTH1	=  1.54059
*WAVE_LENGTH2	=  1.54441
*THICKNESS	=  0, 0.000000
*MU		=  0, 0.000000
*SCAN_MODE	=  2theta/theta
*SPEED_DIM	=  sec./step
*XUNIT		=  deg.
*YUNIT		=  cps
*SCALE_MODE	=  1
*REP_COUNT	=  0
*SE_COUNT	=  0
*STD_MATERIAL	=  Unknown, Unknown, 0.000000, 0.000000, 0.000000, 0.000000, 0.000000, 0.000000
*LATT_CONS	=  0, Unknown, Unknown, 0.000000, 0.000000, 0.000000, 0.000000, 0.000000, 0.000000
*SEC_COUNT	=  1
*TSPEC_SIZE	=  0
*EXTRA_SIZE	=  0
*MEMO		=

*BEGIN
*GROUP		=  0
*START		=  3
*STOP		=  55
*STEP		=  0.01
*OFFSET		=  0.000000
*SPEED		=  0.06
*SLIT_SPEC	=  0, 10.0mm, 10, 0.000000
*SLIT_SPEC	=  1, 1.250deg, 1.25, 0.000000
*SLIT_SPEC	=  2, 13.0mm(Open), 13, 0.000000
*SLIT_SPEC	=  3, 13.0mm, 13, 0.000000
*KV		=  40
*MA		=  15
*LOW		=  0.000000
*HIGH		=  0.000000
*CTEMPER	=  0, 0.000000
*CTEMPER	=  1, 0.000000
*CTEMPER	=  2, 0.000000
*PAREX		=  0, 0.000000
*PAREX		=  1, 0.000000
*PAREX		=  2, 0.000000
*PAREX		=  3, 0.000000
*PAREX		=  4, 0.000000
*PAREX		=  5, 0.000000
*PAREX		=  6, 0.000000
*PAREX		=  7, 0.000000
*PAREX		=  8, 0.000000
*PAREX		=  9, 0.000000
*PAREX		=  10, 0.000000
*PAREX		=  11, 0.000000
*PAREX		=  12, 0.000000
*PAREX		=  13, 0.000000
*PAREX		=  14, 0.000000
*PAREX		=  15, 0.000000
*FULL_SCALE	=  223520
*INDEX		=  0, 0, 0
*COUNT		=  5201
476, 466, 436, 448
448, 451, 430, 442
445, 435, 436, 435
446, 443, 448, 458
432, 458, 457, 443
441, 450, 464, 490
445, 431, 421, 423
391, 382, 392, 416
345, 356, 360, 354
358, 358, 328, 329
316, 321, 335, 329
320, 336, 326, 320
341, 370, 372, 343
324, 306, 321, 338
307, 307, 297, 292
301, 308, 312, 311
298, 290, 282, 304
288, 299, 313, 302
305, 298, 286, 298
311, 301, 305, 309
294, 290, 290, 292
320, 305, 319, 322
319, 308, 314, 330
347, 365, 350, 334
716, 734, 811, 879
3298, 2694, 2072, 1578
405, 395, 407, 394
360, 337, 339, 337
362, 345, 367, 350
298, 312, 299, 334
336, 339, 316, 327
293, 304, 323, 320
321, 313, 326, 323
335, 315, 324, 317
331, 321, 326, 318
302, 297, 304, 318
300, 302, 315, 323
347, 344, 334, 319
500, 522, 545, 588
4856, 5137, 5378, 5417
640, 618, 628, 574
1127, 1246, 1351, 1422
580, 560, 531, 509
416, 386, 392, 414
380, 398, 372, 352
355, 344, 351, 355
340, 348, 345, 316
326, 346, 341, 344
356, 328, 324, 313
313, 317, 323, 308
324, 337, 342, 308
365, 364, 369, 369
562, 598, 644, 671
449, 446, 425, 420
324, 338, 339, 343
330, 338, 356, 335
323, 323, 317, 312
344, 336, 307, 314
316, 311, 314, 318
309, 328, 325, 322
336, 326, 327, 306
317, 323, 342, 335
378, 376, 364, 356
500, 499, 493, 520
798, 873, 887, 977
2959, 2700, 2332, 2037
542, 503, 503, 507
431, 444, 417, 440
401, 403, 389, 382
356, 354, 359, 367
322, 340, 361, 368
372, 342, 352, 352
365, 391, 372, 361
345, 365, 372, 362
510, 530, 560, 568
357, 360, 367, 364
349, 350, 348, 367
344, 347, 338, 336
352, 370, 363, 364
343, 318, 340, 331
364, 349, 374, 383
454, 485, 519, 514
485, 498, 476, 466
423, 423, 393, 409
400, 377, 381, 380
381, 380, 376, 381
367, 354, 358, 336
365, 365, 358, 347
359, 399, 400, 409
465, 498, 528, 521
613, 607, 593, 556
562, 582, 579, 578
759, 765, 795, 839
5488, 6442, 7224, 7896
9479, 9248, 9053, 8904
5944, 5324, 4793, 4040
846, 870, 837, 826
768, 759, 744, 715
695, 705, 702, 668
651, 636, 613, 654
833, 926, 959, 1040
1332, 1324, 1303, 1260
985, 950, 893, 852
527, 511, 513, 506
503, 543, 575, 549
1234, 1308, 1354, 1405
598, 581, 565, 550
547, 562, 555, 563
536, 507, 495, 498
451, 449, 456, 480
492, 468, 466, 491
552, 554, 539, 559
543, 530, 519, 520
442, 445, 463, 473
439, 434, 405, 437
414, 422, 427, 443
523, 486, 500, 536
997, 986, 1020, 1068
539, 538, 522, 497
446, 469, 474, 465
625, 588, 608, 654
573, 582, 615, 580
463, 422, 442, 433
426, 407, 414, 395
399, 412, 407, 409
375, 373, 385, 388
468, 477, 503, 499
424, 443, 432, 440
361, 343, 388, 400
369, 380, 391, 368
400, 390, 398, 399
349, 360, 374, 383
356, 363, 351, 347
361, 342, 353, 356
350, 350, 363, 367
365, 367, 371, 331
348, 319, 340, 362
366, 361, 339, 356
357, 367, 345, 351
372, 358, 360, 341
353, 346, 366, 369
358, 362, 387, 368
367, 382, 382, 375
395, 396, 386, 386
391, 380, 366, 363
364, 365, 367, 352
472, 470, 491, 482
401, 416, 431, 420
454, 436, 499, 537
1167, 1160, 1085, 1065
760, 781, 773, 748
759, 736, 732, 756
399, 397, 404, 398
373, 391, 397, 416
408, 367, 405, 426
417, 426, 449, 462
492, 460, 422, 454
405, 394, 373, 384
393, 388, 402, 416
387, 411, 411, 399
391, 416, 431, 418
415, 413, 383, 382
360, 370, 364, 357
348, 329, 319, 324
353, 320, 337, 344
362, 358, 365, 369
380, 382, 372, 361
345, 341, 353, 379
369, 374, 379, 386
376, 371, 375, 363
372, 382, 363, 370
352, 383, 345, 354
378, 413, 405, 356
429, 435, 431, 426
401, 398, 360, 372
365, 354, 373, 398
356, 329, 330, 346
327, 322, 337, 349
340, 355, 353, 364
337, 360, 362, 351
333, 339, 365, 363
376, 374, 367, 361
341, 370, 374, 366
340, 328, 356, 367
338, 329, 334, 354
358, 346, 363, 381
394, 427, 418, 404
406, 392, 384, 403
492, 524, 505, 550
410, 420, 428, 425
393, 387, 407, 387
403, 419, 404, 399
477, 480, 518, 505
403, 405, 386, 400
399, 403, 388, 367
466, 481, 485, 483
565, 544, 515, 510
402, 410, 425, 410
397, 385, 376, 423
392, 412, 428, 428
481, 479, 462, 454
383, 403, 415, 432
374, 397, 408, 409
372, 401, 417, 418
440, 456, 451, 451
482, 473, 497, 509
713, 728, 752, 745
654, 676, 649, 611
556, 560, 581, 561
566, 574, 588, 578
689, 674, 665, 705
650, 621, 638, 635
635, 645, 647, 679
631, 652, 646, 644
605, 568, 578, 591
499, 461, 458, 464
455, 455, 474, 459
433, 435, 464, 457
448, 416, 418, 414
433, 415, 433, 436
431, 415, 425, 411
469, 487, 518, 484
503, 503, 524, 498
469, 481, 472, 506
462, 486, 504, 499
523, 527, 541, 510
495, 519, 510, 503
459, 433, 457, 460
461, 456, 470, 406
392, 398, 389, 389
352, 360, 384, 373
400, 418, 403, 386
396, 404, 419, 421
393, 405, 415, 409
406, 408, 395, 386
426, 392, 364, 377
408, 396, 399, 407
410, 406, 404, 398
353, 373, 375, 411
388, 388, 371, 359
346, 335, 371, 371
381, 356, 351, 325
348, 354, 358, 353
350, 335, 334, 358
365, 361, 348, 361
391, 372, 368, 390
364, 361, 374, 383
361, 375, 367, 365
338, 353, 366, 380
365, 378, 393, 398
400, 370, 373, 376
398, 397, 380, 366
361, 381, 381, 369
370, 364, 354, 371
386, 370, 359, 364
364, 346, 371, 374
362, 324, 350, 356
360, 362, 374, 378
331, 323, 366, 340
345, 345, 337, 340
355
*END

*EOF