File: 化学生命工学実験4/無機物理化学実験/3/data/実験4配布ファイル/PXRD/20231122_sifsix_powder_2-2_2θ_θ.asc
*TYPE		=  Raw
*CLASS		=  ASCII CLASS
*SAMPLE		=
*COMMENT	=
*FNAME		=  20231122_sifsix_powder_2-2_2θ_θ.asc
*DATE		=  24-Nov-23 10:43

*GROUP_COUNT	=  1
*GONIO		=  MiniFlex 300/600 +, 150
*ATTACHMENT	=  6サンプルチェンジャ
*ASC		=  0, 0, 0.000000, 0.000000
*FILTER		=  K-beta(x1)
*C_MONOCHRO	=  None, 0.000000
*SLIT_NAME	=  0, IHS
*SLIT_NAME	=  1, DS
*SLIT_NAME	=  2, SS
*SLIT_NAME	=  3, RS
*COUNTER	=  D/teX Ultra, 0
*POS_FORMAT	=  0
*SCAN_AXIS	=  2theta/theta
*MEAS_MODE	=  Continuous Scanning
*TARGET		=  29
*XRAY_CHAR	=  K-ALPHA
*WAVE_LENGTH1	=  1.54059
*WAVE_LENGTH2	=  1.54441
*THICKNESS	=  0, 0.000000
*MU		=  0, 0.000000
*SCAN_MODE	=  2theta/theta
*SPEED_DIM	=  sec./step
*XUNIT		=  deg.
*YUNIT		=  cps
*SCALE_MODE	=  1
*REP_COUNT	=  0
*SE_COUNT	=  0
*STD_MATERIAL	=  Unknown, Unknown, 0.000000, 0.000000, 0.000000, 0.000000, 0.000000, 0.000000
*LATT_CONS	=  0, Unknown, Unknown, 0.000000, 0.000000, 0.000000, 0.000000, 0.000000, 0.000000
*SEC_COUNT	=  1
*TSPEC_SIZE	=  0
*EXTRA_SIZE	=  0
*MEMO		=

*BEGIN
*GROUP		=  0
*START		=  3
*STOP		=  55
*STEP		=  0.01
*OFFSET		=  0.000000
*SPEED		=  0.06
*SLIT_SPEC	=  0, 10.0mm, 10, 0.000000
*SLIT_SPEC	=  1, 1.250deg, 1.25, 0.000000
*SLIT_SPEC	=  2, 13.0mm(Open), 13, 0.000000
*SLIT_SPEC	=  3, 13.0mm, 13, 0.000000
*KV		=  40
*MA		=  15
*LOW		=  0.000000
*HIGH		=  0.000000
*CTEMPER	=  0, 0.000000
*CTEMPER	=  1, 0.000000
*CTEMPER	=  2, 0.000000
*PAREX		=  0, 0.000000
*PAREX		=  1, 0.000000
*PAREX		=  2, 0.000000
*PAREX		=  3, 0.000000
*PAREX		=  4, 0.000000
*PAREX		=  5, 0.000000
*PAREX		=  6, 0.000000
*PAREX		=  7, 0.000000
*PAREX		=  8, 0.000000
*PAREX		=  9, 0.000000
*PAREX		=  10, 0.000000
*PAREX		=  11, 0.000000
*PAREX		=  12, 0.000000
*PAREX		=  13, 0.000000
*PAREX		=  14, 0.000000
*PAREX		=  15, 0.000000
*FULL_SCALE	=  43440
*INDEX		=  0, 0, 0
*COUNT		=  5201
99, 106, 113, 121
110, 111, 105, 101
97, 86, 96, 89
75, 83, 93, 85
85, 99, 101, 80
79, 81, 73, 80
77, 69, 67, 78
77, 69, 71, 87
67, 58, 77, 81
68, 60, 75, 73
80, 82, 79, 93
90, 94, 89, 84
81, 66, 78, 66
66, 78, 70, 63
69, 68, 78, 85
71, 71, 75, 70
71, 79, 71, 62
86, 79, 80, 72
89, 90, 77, 75
78, 74, 85, 98
86, 93, 94, 95
88, 87, 87, 89
100, 94, 88, 83
91, 93, 108, 102
163, 175, 183, 196
174, 166, 164, 151
141, 138, 131, 127
106, 94, 108, 115
111, 123, 117, 101
112, 97, 121, 106
113, 115, 122, 121
130, 122, 114, 132
138, 142, 156, 160
155, 131, 130, 129
124, 129, 129, 119
146, 126, 115, 134
127, 127, 138, 140
152, 147, 149, 157
167, 174, 180, 189
284, 325, 355, 372
652, 587, 507, 446
378, 381, 398, 411
217, 211, 204, 212
204, 189, 176, 169
203, 186, 197, 195
157, 162, 166, 168
164, 181, 166, 160
154, 156, 163, 168
151, 133, 176, 168
175, 163, 173, 172
215, 212, 189, 207
185, 189, 206, 213
230, 252, 243, 263
403, 389, 361, 336
181, 184, 174, 200
183, 177, 179, 175
191, 186, 171, 164
187, 173, 178, 196
196, 212, 191, 181
198, 198, 191, 192
174, 170, 176, 192
199, 175, 174, 184
209, 214, 200, 203
223, 242, 241, 237
383, 427, 439, 479
787, 686, 633, 602
290, 267, 258, 265
238, 262, 263, 269
243, 247, 255, 277
239, 239, 225, 211
230, 240, 254, 252
229, 213, 210, 224
241, 246, 233, 239
250, 248, 244, 249
334, 341, 328, 345
273, 272, 275, 250
249, 253, 224, 243
253, 249, 266, 267
411, 399, 371, 404
414, 369, 359, 323
313, 333, 351, 351
436, 464, 481, 524
2103, 2172, 2137, 2126
440, 413, 401, 384
296, 278, 281, 264
250, 274, 277, 281
274, 276, 266, 255
319, 318, 322, 327
425, 430, 438, 449
430, 427, 404, 396
450, 426, 449, 472
342, 312, 319, 320
276, 294, 290, 288
295, 268, 283, 284
286, 288, 306, 301
287, 305, 314, 308
325, 309, 314, 321
333, 330, 348, 338
611, 633, 651, 683
513, 496, 473, 442
290, 302, 276, 283
282, 274, 273, 273
325, 345, 316, 342
314, 321, 301, 296
303, 309, 277, 283
483, 478, 494, 513
407, 414, 425, 430
1022, 1102, 1112, 1064
425, 377, 354, 362
311, 301, 309, 316
302, 290, 291, 317
476, 480, 474, 496
381, 381, 344, 352
317, 282, 287, 305
274, 292, 278, 264
328, 332, 293, 305
423, 451, 472, 473
454, 440, 436, 454
481, 467, 426, 423
306, 288, 293, 295
258, 258, 267, 265
292, 265, 265, 268
307, 296, 295, 299
314, 306, 304, 325
305, 316, 304, 291
258, 253, 241, 236
256, 245, 242, 241
279, 281, 292, 299
343, 326, 317, 305
239, 231, 270, 278
257, 246, 249, 258
256, 256, 276, 259
274, 291, 276, 273
307, 314, 309, 296
250, 251, 262, 248
240, 250, 238, 273
280, 275, 280, 280
445, 475, 502, 498
346, 326, 314, 318
258, 244, 246, 252
244, 274, 259, 235
258, 255, 262, 266
264, 270, 254, 266
247, 257, 264, 271
351, 358, 370, 423
293, 286, 294, 290
278, 308, 298, 283
277, 270, 257, 253
250, 277, 280, 262
337, 364, 348, 367
392, 366, 373, 370
334, 328, 355, 337
249, 273, 280, 268
298, 273, 290, 289
318, 338, 348, 352
405, 377, 361, 353
293, 282, 305, 318
339, 323, 324, 328
273, 259, 260, 285
273, 270, 272, 273
261, 258, 275, 258
318, 318, 318, 319
307, 313, 299, 310
260, 246, 255, 251
265, 278, 276, 276
296, 307, 314, 339
422, 444, 452, 445
343, 351, 351, 349
302, 309, 312, 299
292, 299, 264, 274
253, 258, 261, 241
252, 262, 253, 270
252, 288, 270, 264
263, 266, 274, 272
306, 341, 327, 318
433, 439, 452, 452
329, 305, 314, 323
294, 279, 273, 292
248, 262, 277, 264
262, 265, 262, 261
272, 286, 288, 270
268, 273, 265, 251
286, 295, 299, 290
283, 292, 283, 291
260, 277, 285, 276
263, 267, 282, 272
269, 284, 299, 296
365, 364, 370, 374
447, 473, 487, 459
401, 365, 363, 342
320, 333, 357, 327
453, 478, 487, 493
335, 338, 371, 379
325, 336, 342, 325
300, 281, 280, 291
325, 314, 337, 336
353, 344, 351, 330
371, 384, 369, 356
313, 316, 328, 313
339, 357, 355, 349
356, 371, 334, 344
334, 346, 360, 352
348, 350, 368, 348
298, 300, 302, 323
294, 315, 308, 319
315, 298, 324, 317
336, 340, 341, 348
381, 388, 388, 398
313, 314, 328, 325
311, 297, 286, 299
298, 288, 288, 283
273, 287, 278, 311
309, 325, 308, 298
280, 284, 279, 265
306, 282, 279, 285
315, 308, 298, 307
353, 336, 344, 340
389, 376, 401, 399
423, 414, 388, 404
346, 328, 332, 331
320, 302, 310, 320
330, 310, 332, 314
340, 324, 328, 326
424, 455, 427, 407
408, 426, 436, 442
330, 345, 340, 314
321, 276, 286, 310
287, 278, 271, 279
253, 270, 306, 264
274, 277, 291, 272
303, 290, 282, 272
289, 301, 296, 295
279, 273, 283, 287
298, 290, 293, 296
271, 303, 292, 291
310, 301, 296, 304
309, 332, 331, 325
283, 290, 292, 289
324, 297, 292, 299
324, 294, 294, 316
290, 298, 283, 280
287, 280, 270, 292
300, 292, 262, 270
279, 276, 272, 282
300, 333, 331, 300
347, 350, 316, 333
368, 356, 344, 355
362, 363, 350, 339
318, 312, 314, 278
283, 291, 291, 309
287, 304, 304, 291
293, 285, 263, 276
270, 293, 297, 290
298, 296, 303, 303
283, 289, 307, 318
275, 282, 286, 273
283, 298, 314, 329
310, 316, 317, 322
319, 326, 309, 314
285, 292, 282, 304
282
*END

*EOF