File: 化学生命工学実験4/無機物理化学実験/3/data/実験4配布ファイル/PXRD/20231122_sifsix_powder_1-2_2θ_θ.asc
*TYPE		=  Raw
*CLASS		=  ASCII CLASS
*SAMPLE		=
*COMMENT	=
*FNAME		=  20231122_sifsix_powder_1-2_2θ_θ.asc
*DATE		=  24-Nov-23 10:37

*GROUP_COUNT	=  1
*GONIO		=  MiniFlex 300/600 +, 150
*ATTACHMENT	=  6サンプルチェンジャ
*ASC		=  0, 0, 0.000000, 0.000000
*FILTER		=  K-beta(x1)
*C_MONOCHRO	=  None, 0.000000
*SLIT_NAME	=  0, IHS
*SLIT_NAME	=  1, DS
*SLIT_NAME	=  2, SS
*SLIT_NAME	=  3, RS
*COUNTER	=  D/teX Ultra, 0
*POS_FORMAT	=  0
*SCAN_AXIS	=  2theta/theta
*MEAS_MODE	=  Continuous Scanning
*TARGET		=  29
*XRAY_CHAR	=  K-ALPHA
*WAVE_LENGTH1	=  1.54059
*WAVE_LENGTH2	=  1.54441
*THICKNESS	=  0, 0.000000
*MU		=  0, 0.000000
*SCAN_MODE	=  2theta/theta
*SPEED_DIM	=  sec./step
*XUNIT		=  deg.
*YUNIT		=  cps
*SCALE_MODE	=  1
*REP_COUNT	=  0
*SE_COUNT	=  0
*STD_MATERIAL	=  Unknown, Unknown, 0.000000, 0.000000, 0.000000, 0.000000, 0.000000, 0.000000
*LATT_CONS	=  0, Unknown, Unknown, 0.000000, 0.000000, 0.000000, 0.000000, 0.000000, 0.000000
*SEC_COUNT	=  1
*TSPEC_SIZE	=  0
*EXTRA_SIZE	=  0
*MEMO		=

*BEGIN
*GROUP		=  0
*START		=  3
*STOP		=  55
*STEP		=  0.01
*OFFSET		=  0.000000
*SPEED		=  0.06
*SLIT_SPEC	=  0, 10.0mm, 10, 0.000000
*SLIT_SPEC	=  1, 1.250deg, 1.25, 0.000000
*SLIT_SPEC	=  2, 13.0mm(Open), 13, 0.000000
*SLIT_SPEC	=  3, 13.0mm, 13, 0.000000
*KV		=  40
*MA		=  15
*LOW		=  0.000000
*HIGH		=  0.000000
*CTEMPER	=  0, 0.000000
*CTEMPER	=  1, 0.000000
*CTEMPER	=  2, 0.000000
*PAREX		=  0, 0.000000
*PAREX		=  1, 0.000000
*PAREX		=  2, 0.000000
*PAREX		=  3, 0.000000
*PAREX		=  4, 0.000000
*PAREX		=  5, 0.000000
*PAREX		=  6, 0.000000
*PAREX		=  7, 0.000000
*PAREX		=  8, 0.000000
*PAREX		=  9, 0.000000
*PAREX		=  10, 0.000000
*PAREX		=  11, 0.000000
*PAREX		=  12, 0.000000
*PAREX		=  13, 0.000000
*PAREX		=  14, 0.000000
*PAREX		=  15, 0.000000
*FULL_SCALE	=  39500
*INDEX		=  0, 0, 0
*COUNT		=  5201
166, 161, 169, 187
147, 157, 144, 157
146, 134, 131, 139
122, 123, 137, 136
115, 115, 124, 112
102, 113, 134, 127
115, 129, 100, 115
129, 121, 121, 102
102, 106, 106, 111
119, 113, 108, 105
129, 131, 131, 140
141, 140, 137, 141
99, 109, 100, 94
96, 92, 100, 95
90, 106, 94, 88
90, 98, 91, 85
89, 95, 112, 107
96, 101, 87, 82
98, 97, 101, 105
91, 88, 88, 89
101, 105, 92, 98
111, 103, 105, 103
100, 102, 107, 109
112, 117, 117, 117
199, 226, 229, 247
356, 339, 315, 264
154, 170, 161, 164
140, 145, 154, 139
139, 137, 148, 133
124, 156, 123, 127
135, 151, 143, 131
142, 139, 133, 148
186, 197, 200, 214
175, 175, 183, 164
161, 164, 160, 164
147, 151, 162, 149
175, 165, 171, 171
182, 173, 192, 184
231, 214, 217, 233
414, 428, 462, 493
760, 738, 689, 663
527, 538, 526, 521
352, 340, 308, 323
252, 255, 254, 266
213, 224, 215, 231
210, 207, 191, 196
211, 198, 195, 212
180, 192, 177, 189
190, 210, 205, 198
228, 230, 216, 212
252, 266, 244, 234
226, 241, 257, 227
295, 303, 293, 341
436, 434, 436, 406
255, 266, 232, 236
206, 197, 200, 217
215, 219, 208, 207
224, 212, 215, 210
230, 242, 241, 234
238, 259, 255, 214
212, 236, 240, 233
246, 246, 214, 219
247, 231, 223, 228
258, 275, 280, 272
508, 545, 580, 616
1019, 950, 905, 813
398, 426, 385, 358
325, 312, 263, 267
283, 281, 297, 281
268, 273, 300, 291
301, 278, 264, 286
283, 264, 269, 290
284, 269, 267, 272
301, 292, 293, 295
420, 421, 416, 410
345, 322, 323, 313
282, 302, 292, 288
305, 331, 303, 312
441, 453, 458, 466
456, 440, 443, 421
388, 413, 400, 409
502, 517, 541, 599
1947, 1874, 1975, 1886
838, 794, 721, 682
310, 357, 353, 335
292, 309, 309, 338
302, 314, 318, 312
363, 385, 376, 388
504, 516, 516, 490
520, 494, 489, 474
458, 478, 480, 489
386, 389, 392, 371
334, 327, 324, 343
292, 327, 316, 310
345, 368, 361, 344
320, 312, 328, 337
356, 335, 355, 371
348, 359, 354, 358
625, 644, 698, 685
506, 514, 520, 517
336, 326, 320, 339
301, 309, 312, 313
356, 371, 352, 358
338, 330, 321, 341
297, 324, 340, 339
531, 542, 557, 527
444, 436, 457, 492
971, 1017, 977, 953
495, 446, 447, 456
338, 334, 328, 328
318, 313, 323, 341
439, 477, 479, 471
420, 407, 404, 381
325, 303, 311, 291
287, 280, 279, 278
293, 312, 297, 303
476, 480, 488, 476
486, 508, 504, 456
453, 441, 423, 433
310, 299, 280, 276
259, 250, 290, 278
258, 258, 251, 268
314, 289, 289, 297
302, 296, 294, 300
274, 281, 282, 274
244, 250, 262, 263
235, 219, 251, 242
282, 262, 270, 267
290, 298, 282, 279
244, 248, 276, 272
231, 222, 204, 227
251, 249, 246, 232
270, 253, 246, 271
273, 267, 289, 272
231, 236, 206, 230
224, 238, 238, 246
256, 235, 252, 251
390, 393, 426, 410
308, 297, 297, 286
205, 221, 226, 236
225, 218, 230, 224
222, 208, 219, 215
239, 232, 233, 219
224, 232, 228, 230
318, 314, 324, 341
273, 270, 254, 250
259, 245, 256, 257
216, 238, 229, 228
211, 214, 240, 236
290, 293, 326, 304
297, 289, 280, 291
295, 297, 300, 287
254, 258, 235, 226
252, 256, 240, 202
285, 305, 284, 313
309, 318, 312, 300
257, 252, 252, 253
262, 263, 265, 271
221, 221, 215, 229
201, 213, 212, 215
214, 227, 231, 224
231, 259, 260, 256
249, 238, 242, 236
213, 201, 227, 232
206, 214, 200, 210
253, 266, 260, 260
335, 347, 357, 363
262, 272, 252, 251
244, 244, 235, 235
227, 220, 209, 229
195, 214, 212, 207
211, 234, 209, 224
190, 200, 209, 226
230, 228, 209, 211
249, 243, 242, 238
316, 305, 326, 323
250, 242, 240, 244
184, 186, 201, 202
215, 195, 200, 205
181, 194, 199, 206
210, 222, 219, 224
191, 207, 200, 194
211, 218, 211, 228
243, 212, 216, 225
195, 202, 217, 232
203, 203, 199, 219
260, 232, 237, 230
225, 254, 273, 264
345, 356, 323, 325
295, 255, 258, 254
260, 250, 272, 250
345, 336, 335, 316
262, 268, 283, 266
241, 246, 238, 234
235, 228, 210, 229
233, 232, 227, 253
235, 223, 237, 249
283, 281, 261, 260
231, 227, 234, 245
244, 237, 245, 249
275, 259, 249, 238
237, 240, 228, 252
258, 267, 267, 266
235, 240, 217, 213
216, 217, 228, 228
223, 242, 249, 226
248, 254, 221, 233
281, 272, 283, 265
247, 247, 245, 243
220, 224, 213, 206
198, 191, 186, 205
206, 202, 204, 205
206, 209, 233, 230
197, 209, 215, 217
210, 197, 209, 230
203, 220, 222, 211
230, 249, 257, 244
265, 287, 289, 283
286, 288, 265, 276
251, 231, 237, 233
216, 235, 215, 229
228, 249, 231, 245
228, 240, 230, 238
284, 288, 298, 292
279, 283, 294, 282
224, 260, 260, 225
220, 229, 212, 207
193, 194, 190, 215
223, 217, 214, 194
209, 225, 205, 210
206, 202, 201, 219
207, 204, 197, 193
208, 202, 225, 217
207, 203, 201, 211
202, 189, 197, 201
237, 214, 209, 206
230, 214, 215, 215
208, 193, 188, 211
196, 207, 237, 236
210, 226, 245, 253
199, 209, 204, 206
200, 192, 207, 192
199, 204, 198, 178
194, 219, 204, 208
220, 220, 219, 225
218, 242, 235, 218
243, 249, 233, 218
246, 231, 250, 223
237, 219, 202, 216
199, 193, 207, 175
192, 195, 195, 208
201, 199, 197, 194
205, 218, 200, 206
208, 218, 232, 211
215, 201, 200, 203
222, 204, 188, 198
232, 234, 241, 222
235, 225, 210, 222
216, 208, 200, 214
197, 208, 188, 202
173
*END

*EOF