File: 化学生命工学実験4/無機物理化学実験/3/data/実験4配布ファイル/PXRD/20231122_sifsix_powder_2-hara_2θ_θ.asc
*TYPE		=  Raw
*CLASS		=  ASCII CLASS
*SAMPLE		=
*COMMENT	=
*FNAME		=  20231122_sifsix_powder_2-hara_2θ_θ.asc
*DATE		=  22-Nov-23 15:41

*GROUP_COUNT	=  1
*GONIO		=  MiniFlex 300/600 +, 150
*ATTACHMENT	=  6サンプルチェンジャ
*ASC		=  0, 0, 0.000000, 0.000000
*FILTER		=  K-beta(x1)
*C_MONOCHRO	=  None, 0.000000
*SLIT_NAME	=  0, IHS
*SLIT_NAME	=  1, DS
*SLIT_NAME	=  2, SS
*SLIT_NAME	=  3, RS
*COUNTER	=  D/teX Ultra, 0
*POS_FORMAT	=  0
*SCAN_AXIS	=  2theta/theta
*MEAS_MODE	=  Continuous Scanning
*TARGET		=  29
*XRAY_CHAR	=  K-ALPHA
*WAVE_LENGTH1	=  1.54059
*WAVE_LENGTH2	=  1.54441
*THICKNESS	=  0, 0.000000
*MU		=  0, 0.000000
*SCAN_MODE	=  2theta/theta
*SPEED_DIM	=  sec./step
*XUNIT		=  deg.
*YUNIT		=  cps
*SCALE_MODE	=  1
*REP_COUNT	=  0
*SE_COUNT	=  0
*STD_MATERIAL	=  Unknown, Unknown, 0.000000, 0.000000, 0.000000, 0.000000, 0.000000, 0.000000
*LATT_CONS	=  0, Unknown, Unknown, 0.000000, 0.000000, 0.000000, 0.000000, 0.000000, 0.000000
*SEC_COUNT	=  1
*TSPEC_SIZE	=  0
*EXTRA_SIZE	=  0
*MEMO		=

*BEGIN
*GROUP		=  0
*START		=  3
*STOP		=  55
*STEP		=  0.01
*OFFSET		=  0.000000
*SPEED		=  0.06
*SLIT_SPEC	=  0, 10.0mm, 10, 0.000000
*SLIT_SPEC	=  1, 1.250deg, 1.25, 0.000000
*SLIT_SPEC	=  2, 13.0mm(Open), 13, 0.000000
*SLIT_SPEC	=  3, 13.0mm, 13, 0.000000
*KV		=  40
*MA		=  15
*LOW		=  0.000000
*HIGH		=  0.000000
*CTEMPER	=  0, 0.000000
*CTEMPER	=  1, 0.000000
*CTEMPER	=  2, 0.000000
*PAREX		=  0, 0.000000
*PAREX		=  1, 0.000000
*PAREX		=  2, 0.000000
*PAREX		=  3, 0.000000
*PAREX		=  4, 0.000000
*PAREX		=  5, 0.000000
*PAREX		=  6, 0.000000
*PAREX		=  7, 0.000000
*PAREX		=  8, 0.000000
*PAREX		=  9, 0.000000
*PAREX		=  10, 0.000000
*PAREX		=  11, 0.000000
*PAREX		=  12, 0.000000
*PAREX		=  13, 0.000000
*PAREX		=  14, 0.000000
*PAREX		=  15, 0.000000
*FULL_SCALE	=  12520
*INDEX		=  0, 0, 0
*COUNT		=  5201
52, 55, 50, 56
53, 55, 50, 52
44, 41, 38, 40
36, 36, 36, 34
36, 31, 38, 34
26, 32, 32, 34
37, 33, 31, 33
28, 26, 27, 24
26, 28, 26, 22
25, 25, 27, 24
20, 30, 29, 35
41, 35, 32, 30
33, 32, 37, 35
18, 29, 21, 24
25, 19, 24, 29
24, 28, 34, 30
23, 25, 21, 26
23, 24, 24, 25
24, 23, 17, 20
26, 29, 28, 30
26, 28, 19, 20
30, 23, 26, 24
27, 23, 32, 29
36, 33, 31, 33
94, 111, 127, 151
108, 87, 76, 74
37, 37, 36, 37
30, 25, 28, 30
25, 34, 31, 24
36, 28, 27, 32
28, 29, 36, 36
33, 28, 34, 40
39, 38, 39, 43
35, 34, 42, 39
30, 37, 33, 26
31, 29, 34, 38
40, 36, 30, 34
31, 39, 44, 40
43, 55, 66, 49
61, 56, 63, 58
84, 92, 88, 83
285, 290, 290, 293
86, 84, 90, 77
47, 44, 52, 51
54, 45, 45, 52
48, 42, 43, 42
44, 47, 48, 52
40, 40, 45, 35
35, 46, 43, 30
40, 42, 47, 46
51, 46, 53, 56
66, 64, 61, 61
103, 113, 110, 113
66, 70, 80, 65
50, 53, 48, 45
47, 40, 38, 39
44, 44, 48, 53
56, 51, 51, 59
53, 51, 39, 42
53, 59, 51, 51
44, 56, 57, 55
59, 50, 57, 53
76, 71, 64, 70
82, 99, 100, 87
273, 333, 343, 352
456, 401, 385, 318
114, 101, 93, 82
86, 97, 84, 75
70, 72, 76, 72
73, 78, 87, 80
72, 66, 74, 69
78, 73, 72, 73
66, 62, 64, 74
60, 63, 68, 67
121, 110, 109, 112
84, 82, 78, 74
74, 71, 77, 75
76, 56, 66, 68
66, 67, 70, 80
82, 78, 71, 76
85, 74, 70, 73
124, 101, 101, 113
106, 93, 94, 93
76, 92, 81, 77
74, 83, 81, 71
85, 81, 77, 72
86, 88, 85, 83
95, 81, 83, 89
95, 103, 103, 106
129, 125, 131, 129
119, 135, 159, 148
112, 107, 110, 116
134, 149, 154, 145
119, 123, 134, 137
203, 200, 200, 217
195, 196, 186, 194
114, 113, 115, 114
111, 121, 120, 135
146, 148, 163, 152
134, 142, 170, 170
132, 126, 121, 127
143, 131, 142, 150
168, 167, 178, 156
115, 106, 104, 99
122, 133, 136, 126
248, 239, 235, 244
123, 101, 110, 108
120, 115, 121, 114
112, 104, 108, 103
106, 115, 111, 99
109, 118, 108, 107
145, 126, 138, 130
143, 129, 124, 131
104, 118, 112, 101
127, 107, 102, 102
95, 103, 114, 110
130, 139, 164, 173
221, 210, 213, 196
125, 139, 129, 120
123, 123, 135, 131
133, 134, 123, 114
115, 121, 129, 133
120, 120, 121, 117
117, 123, 122, 106
106, 102, 96, 102
104, 103, 95, 92
101, 110, 115, 98
110, 106, 104, 111
97, 81, 82, 100
97, 95, 96, 102
100, 112, 106, 106
89, 95, 83, 96
98, 103, 106, 98
102, 100, 94, 91
106, 96, 91, 93
102, 108, 101, 92
105, 103, 103, 90
91, 105, 83, 98
100, 101, 99, 114
87, 94, 98, 97
100, 99, 91, 92
99, 105, 106, 95
98, 100, 91, 85
92, 94, 108, 100
114, 109, 93, 104
87, 89, 87, 89
115, 117, 131, 117
95, 118, 117, 100
106, 95, 103, 108
115, 114, 112, 112
107, 102, 111, 114
97, 106, 116, 114
120, 105, 91, 104
108, 107, 98, 83
116, 111, 98, 100
135, 129, 148, 121
112, 110, 119, 104
99, 104, 120, 104
99, 94, 100, 106
112, 110, 106, 108
118, 108, 100, 99
104, 102, 111, 114
97, 115, 97, 86
110, 100, 100, 108
98, 106, 94, 91
108, 112, 110, 104
107, 105, 119, 111
107, 93, 109, 112
108, 102, 106, 105
110, 111, 100, 90
109, 102, 105, 121
111, 105, 110, 106
91, 93, 104, 109
108, 96, 107, 102
105, 106, 112, 125
107, 108, 115, 115
103, 109, 108, 109
115, 99, 94, 94
118, 122, 114, 105
98, 109, 110, 109
97, 91, 100, 110
102, 102, 111, 105
102, 93, 106, 112
112, 104, 106, 109
105, 109, 110, 112
106, 85, 95, 97
115, 113, 99, 109
115, 119, 108, 111
138, 128, 143, 142
118, 112, 119, 115
117, 106, 119, 133
113, 110, 105, 102
131, 117, 114, 127
128, 127, 104, 106
97, 105, 105, 104
109, 118, 118, 129
124, 129, 131, 127
127, 117, 120, 126
122, 128, 126, 132
135, 117, 124, 133
120, 124, 120, 122
125, 121, 112, 112
109, 100, 107, 116
109, 115, 116, 99
121, 118, 123, 122
125, 129, 121, 107
125, 121, 111, 127
115, 104, 121, 116
112, 108, 111, 107
107, 110, 105, 115
108, 120, 138, 113
115, 118, 131, 118
115, 120, 123, 129
125, 122, 120, 129
115, 111, 110, 131
103, 109, 120, 121
103, 116, 122, 124
108, 122, 114, 110
109, 130, 121, 112
126, 107, 120, 127
111, 109, 123, 127
126, 123, 123, 115
128, 137, 132, 124
118, 115, 112, 119
124, 120, 126, 112
118, 143, 125, 117
111, 115, 100, 110
116, 123, 109, 107
121, 130, 130, 117
111, 106, 110, 110
113, 104, 112, 122
121, 113, 119, 114
120, 118, 117, 126
114, 128, 118, 110
108, 105, 117, 104
111, 115, 109, 114
127, 125, 124, 129
116, 102, 106, 109
119, 126, 127, 116
111, 98, 98, 113
103, 105, 117, 114
111, 104, 109, 110
108, 110, 107, 93
106, 116, 102, 107
106, 110, 120, 112
117, 118, 101, 82
107, 116, 107, 103
108, 115, 112, 119
115, 118, 113, 116
103, 100, 110, 114
119, 117, 112, 126
115, 115, 108, 113
120, 118, 118, 113
123, 110, 116, 120
120, 120, 114, 111
114, 120, 134, 114
109, 107, 116, 118
119, 122, 106, 116
97, 106, 116, 105
112, 120, 123, 124
107
*END

*EOF