File: 化学生命工学実験4/無機物理化学実験/2/data/A_pre_2θ_θ.asc
*TYPE		=  Raw
*CLASS		=  ASCII CLASS
*SAMPLE		=
*COMMENT	=
*FNAME		=  A_pre_2θ_θ.asc
*DATE		=  06-Dec-23 14:20

*GROUP_COUNT	=  1
*GONIO		=  SmartLab(In-plane), 0.000000
*ATTACHMENT	=  χφZクレードル
*ASC		=  0, 0, 0.000000, 0.000000
*I_MONOCHRO	=  Soller_slit_5.0deg, 0.000000
*FILTER		=  None
*C_MONOCHRO	=  Bent, 0.000000
*SLIT_NAME	=  0, 入射スリット
*SLIT_NAME	=  1, 受光スリット1
*SLIT_NAME	=  2, 受光スリット2
*COUNTER	=  SC-70, 0
*POS_FORMAT	=  0
*SCAN_AXIS	=  2theta/theta
*MEAS_MODE	=  Continuous Scanning
*TARGET		=  29
*XRAY_CHAR	=  K-ALPHA
*WAVE_LENGTH1	=  1.54059
*WAVE_LENGTH2	=  1.54441
*THICKNESS	=  0, 0.000000
*MU		=  0, 0.000000
*SCAN_MODE	=  2theta/theta
*SPEED_DIM	=  sec./step
*XUNIT		=  deg.
*YUNIT		=  counts
*SCALE_MODE	=  1
*REP_COUNT	=  0
*SE_COUNT	=  0
*STD_MATERIAL	=  Unknown, Unknown, 0.000000, 0.000000, 0.000000, 0.000000, 0.000000, 0.000000
*LATT_CONS	=  0, Unknown, Unknown, 0.000000, 0.000000, 0.000000, 0.000000, 0.000000, 0.000000
*SEC_COUNT	=  1
*TSPEC_SIZE	=  0
*EXTRA_SIZE	=  0
*MEMO		=

*BEGIN
*GROUP		=  0
*START		=  2
*STOP		=  60
*STEP		=  0.01
*OFFSET		=  0.000000
*SPEED		=  0.0666667
*SLIT_SPEC	=  0, 1/2deg, 1, 0.000000
*SLIT_SPEC	=  1, 1/2deg, 1, 0.000000
*SLIT_SPEC	=  2, 0.300mm, 0.3, 0.000000
*KV		=  45
*MA		=  200
*LOW		=  0.000000
*HIGH		=  0.000000
*CTEMPER	=  0, 0.000000
*CTEMPER	=  1, 0.000000
*CTEMPER	=  2, 0.000000
*PAREX		=  0, 0.000000
*PAREX		=  1, 0.000000
*PAREX		=  2, 0.000000
*PAREX		=  3, 0.000000
*PAREX		=  4, 0.000000
*PAREX		=  5, 0.000000
*PAREX		=  6, 0.000000
*PAREX		=  7, 0.000000
*PAREX		=  8, 0.000000
*PAREX		=  9, 0.000000
*PAREX		=  10, 0.000000
*PAREX		=  11, 0.000000
*PAREX		=  12, 0.000000
*PAREX		=  13, 0.000000
*PAREX		=  14, 0.000000
*PAREX		=  15, 0.000000
*FULL_SCALE	=  17352
*INDEX		=  0, 0, 0
*COUNT		=  5801
47, 49, 52, 53
52, 49, 43, 44
49, 31, 43, 36
43, 46, 31, 28
28, 33, 32, 25
23, 30, 28, 21
14, 23, 21, 29
25, 23, 16, 20
14, 22, 32, 17
20, 21, 18, 16
23, 14, 24, 15
22, 19, 15, 14
21, 13, 18, 25
16, 10, 15, 12
10, 15, 10, 14
19, 11, 12, 19
9, 10, 13, 14
12, 15, 8, 16
14, 7, 12, 9
11, 13, 14, 9
13, 6, 14, 11
4, 8, 10, 10
11, 16, 9, 13
10, 6, 11, 15
5, 9, 9, 11
8, 14, 8, 13
7, 13, 12, 9
7, 13, 5, 8
13, 7, 7, 10
10, 11, 10, 5
14, 8, 7, 5
8, 12, 7, 12
6, 6, 10, 8
8, 10, 5, 12
13, 6, 7, 7
9, 6, 7, 4
12, 6, 11, 5
8, 10, 2, 7
10, 6, 8, 10
7, 8, 4, 14
7, 8, 14, 11
11, 7, 10, 7
8, 10, 6, 6
14, 12, 10, 8
18, 20, 15, 18
43, 51, 49, 49
203, 220, 243, 311
164, 95, 64, 52
14, 16, 8, 17
7, 11, 14, 3
7, 6, 6, 10
5, 7, 6, 6
6, 5, 7, 2
4, 2, 6, 6
7, 4, 6, 4
4, 2, 5, 2
5, 8, 4, 6
9, 4, 7, 2
3, 4, 3, 10
2, 4, 2, 6
0.000000, 2, 2, 3
2, 3, 3, 7
7, 3, 3, 5
5, 6, 3, 6
4, 4, 4, 2
2, 2, 3, 0.000000
4, 4, 3, 6
2, 1, 1, 2
6, 2, 3, 6
2, 1, 2, 4
0.000000, 5, 2, 2
4, 7, 6, 3
4, 1, 1, 3
3, 3, 1, 4
4, 0.000000, 2, 4
1, 4, 2, 2
0.000000, 3, 3, 1
6, 4, 1, 7
6, 2, 1, 1
2, 5, 3, 6
3, 2, 3, 2
4, 1, 3, 2
3, 2, 3, 0.000000
2, 2, 3, 0.000000
3, 1, 1, 1
1, 1, 6, 0.000000
3, 0.000000, 2, 1
4, 0.000000, 4, 2
2, 1, 1, 2
2, 2, 3, 1
0.000000, 0.000000, 0.000000, 1
3, 1, 1, 3
2, 7, 0.000000, 2
1, 6, 2, 2
2, 5, 2, 1
1, 3, 2, 2
1, 2, 2, 2
3, 1, 1, 2
1, 4, 3, 2
3, 1, 2, 0.000000
0.000000, 0.000000, 1, 1
4, 4, 2, 1
2, 2, 0.000000, 1
4, 2, 5, 2
18, 6, 9, 9
2, 3, 5, 2
3, 3, 1, 1
2, 0.000000, 1, 1
3, 3, 2, 3
4, 4, 6, 6
8, 9, 8, 7
2, 2, 1, 0.000000
0.000000, 3, 5, 2
4, 3, 3, 1
2, 2, 2, 5
4, 2, 0.000000, 1
0.000000, 2, 5, 3
6, 4, 1, 3
4, 4, 4, 7
3, 3, 4, 2
4, 3, 5, 2
3, 8, 5, 3
6, 2, 2, 6
3, 6, 4, 5
2, 3, 4, 6
5, 5, 4, 6
2, 3, 2, 8
3, 2, 1, 5
4, 6, 1, 5
7, 5, 2, 5
3, 7, 6, 7
3, 2, 6, 5
5, 8, 6, 3
8, 5, 9, 12
49, 48, 55, 58
199, 188, 150, 153
14, 15, 17, 11
11, 8, 10, 4
5, 5, 4, 2
6, 5, 1, 3
6, 4, 4, 4
3, 6, 2, 6
2, 3, 5, 6
4, 3, 1, 2
1, 2, 2, 3
6, 4, 3, 2
2, 4, 3, 2
2, 5, 3, 3
3, 5, 1, 2
2, 7, 6, 8
6, 12, 16, 9
20, 14, 7, 7
2, 4, 4, 1
6, 3, 6, 3
7, 5, 4, 5
4, 4, 5, 4
2, 7, 1, 6
3, 2, 6, 5
2, 7, 2, 3
5, 3, 2, 3
6, 5, 4, 4
3, 6, 7, 6
94, 115, 94, 114
14, 8, 12, 6
5, 4, 3, 3
4, 7, 4, 4
6, 3, 3, 5
2, 2, 7, 6
1, 2, 5, 2
3, 3, 4, 1
2, 6, 2, 5
6, 2, 3, 4
1, 4, 2, 3
2, 4, 3, 2
6, 3, 3, 2
5, 2, 6, 2
5, 5, 6, 4
3, 4, 6, 11
11, 16, 12, 13
36, 30, 29, 32
42, 68, 74, 57
16, 18, 14, 17
11, 15, 19, 7
12, 7, 11, 11
9, 13, 7, 7
6, 3, 5, 2
4, 6, 2, 3
0.000000, 5, 1, 4
3, 8, 2, 3
1, 2, 2, 1
2, 2, 1, 2
0.000000, 1, 5, 3
1, 6, 3, 4
1, 3, 1, 4
4, 1, 2, 1
4, 0.000000, 4, 0.000000
6, 2, 2, 1
2, 3, 1, 4
2, 5, 2, 1
2, 3, 3, 2
6, 5, 7, 8
4, 11, 9, 1
6, 4, 2, 5
4, 4, 5, 1
1, 6, 1, 6
1, 2, 6, 4
3, 6, 4, 0.000000
6, 3, 4, 1
4, 0.000000, 4, 0.000000
3, 3, 3, 2
0.000000, 4, 1, 3
2, 6, 4, 4
3, 2, 3, 5
3, 6, 4, 4
3, 3, 5, 1
0.000000, 3, 6, 2
2, 0.000000, 1, 5
5, 5, 4, 3
3, 4, 6, 2
3, 3, 7, 11
11, 14, 15, 14
25, 40, 44, 46
37, 24, 40, 30
26, 16, 14, 10
3, 8, 8, 8
5, 1, 4, 8
4, 3, 8, 5
9, 13, 14, 16
32, 31, 39, 27
9, 7, 6, 3
4, 7, 4, 4
6, 1, 5, 6
21, 11, 14, 15
10, 7, 15, 5
4, 4, 6, 2
14, 7, 15, 8
5, 6, 2, 4
3, 5, 1, 3
4, 3, 2, 3
0.000000, 2, 5, 0.000000
0.000000, 3, 5, 2
4, 4, 2, 3
2, 3, 2, 1
2, 1, 2, 1
2, 1, 2, 2
3, 1, 2, 1
1, 4, 2, 1
1, 3, 2, 2
5, 2, 2, 2
1, 3, 2, 3
6, 3, 3, 2
1, 1, 0.000000, 2
1, 1, 0.000000, 3
3, 1, 0.000000, 0.000000
4, 0.000000, 2, 1
2, 2, 1, 2
4, 2, 1, 8
2, 4, 0.000000, 5
4, 1, 0.000000, 1
1, 2, 5, 4
2, 3, 1, 1
2, 1, 1, 3
2, 2, 3, 0.000000
3, 3, 1, 1
6, 2, 1, 1
2, 2, 4, 4
5, 1, 2, 4
0.000000, 3, 1, 2
4, 3, 1, 4
5, 1, 0.000000, 5
2, 3, 5, 3
5, 4, 5, 4
2, 3, 2, 8
8, 10, 8, 10
20, 19, 26, 39
25, 16, 16, 18
6, 9, 7, 4
6, 4, 2, 1
4, 7, 0.000000, 3
1, 4, 4, 4
8, 4, 1, 6
5, 5, 5, 7
15, 19, 18, 11
6, 9, 10, 6
10, 2, 9, 6
15, 7, 17, 23
17, 23, 10, 14
3, 4, 7, 9
4, 2, 4, 2
6, 4, 4, 5
8
*END

*EOF